% Time (s)	Gyro Output (V)	Input Rate (rad/s)	%1/26/201811:22 AM
0.000	0.000	0.000
7603.410	-0.030	0.000
7603.470	-3.710	0.293
7603.500	-5.510	0.806
7603.520	-7.140	1.318
7603.570	-10.820	1.831
7603.610	-13.820	2.344
7603.720	-20.200	3.369
7603.730	-20.370	3.589
7603.790	-21.480	3.809
7603.810	-22.110	4.175
7603.870	-22.080	4.395
7603.950	-22.250	4.248
7603.990	-20.950	4.028
7604.060	-17.230	3.516
7604.070	-16.630	3.662
7604.110	-13.490	3.369
7604.250	0.940	0.293
7604.270	4.520	0.073
7604.370	18.850	-2.344
7604.410	23.370	-4.175
7604.480	31.900	-5.347
7604.570	40.700	-7.251
7604.590	42.990	-7.471
7604.600	44.290	-7.617
7604.670	50.470	-9.229
7604.720	53.610	-9.741
7604.900	63.010	-11.792
7604.910	63.210	-12.231
7604.960	63.120	-12.085
7605.080	61.440	-11.865
7605.090	60.780	-11.572
7605.230	48.590	-10.107
7605.240	47.450	-9.595
7605.270	43.200	-8.862
7605.280	41.370	-8.716
7605.320	36.860	-8.203
7605.340	33.830	-7.324
7605.350	32.600	-7.031
7605.370	29.360	-6.299
7605.400	25.990	-5.640
7605.510	7.960	-2.417
7605.520	6.900	-2.197
7605.950	-24.750	4.614
7605.980	-25.090	4.761
7606.030	-24.460	4.834
7606.050	-24.120	4.761
7606.200	-20.130	3.809
7606.230	-18.910	3.882
7606.250	-16.170	3.516
7606.270	-13.790	3.296
7606.400	1.520	0.586
7606.550	16.290	-3.003
7606.560	16.840	-3.003
7606.630	21.080	-3.589
7606.670	22.470	-4.102
7606.680	22.660	-4.175
7606.740	25.170	-4.614
7606.760	26.250	-4.907
7606.840	29.640	-5.420
7606.860	30.320	-5.347
7606.870	30.740	-5.347
7606.880	30.770	-5.420
7607.040	31.470	-5.713
7607.060	31.410	-5.933
7607.070	31.100	-5.933
7607.110	28.260	-5.566
7607.120	27.040	-5.493
7607.130	26.110	-5.566
7607.300	8.690	-2.271
7607.330	4.780	-1.685
7607.390	-2.780	-0.220
7607.460	-12.010	1.758
7607.480	-14.750	2.124
7607.590	-26.000	4.541
7607.630	-30.940	5.200
7608.050	-59.740	11.279
7608.070	-59.200	11.279
7608.080	-58.880	11.060
7608.230	-45.500	9.595
7608.260	-43.030	9.009
7608.280	-40.270	8.350
7608.290	-39.460	8.423
7608.460	-16.450	3.882
7608.470	-14.590	3.516
7608.580	2.170	0.806
7608.620	5.760	-0.513
7608.660	10.230	-1.538
7608.700	13.600	-2.051
7608.740	17.870	-2.710
7608.800	21.870	-3.955
7608.810	22.340	-4.028
7608.830	23.240	-3.955
7608.880	24.480	-4.541
7608.890	24.590	-4.614
7608.970	25.690	-5.127
7609.140	22.560	-4.468
7609.150	21.900	-4.395
7609.170	19.750	-3.955
7609.190	18.640	-3.955
7609.230	14.060	-3.735
7609.440	-8.580	0.806
7609.450	-9.170	0.952
7609.530	-17.210	2.710
7609.540	-18.190	2.856
7609.550	-19.000	3.076
7609.560	-20.110	3.369
7609.570	-20.520	3.735
7609.590	-22.660	4.028
7609.620	-24.260	4.175
7609.660	-27.270	4.834
7609.720	-30.210	5.566
7609.740	-31.300	5.713
7609.780	-33.490	6.079
7609.820	-35.290	6.592
7609.830	-35.520	6.519
7609.850	-36.120	6.519
7609.910	-35.840	6.812
7609.960	-35.900	6.958
7609.980	-35.830	6.738
7609.990	-35.550	6.885
7610.000	-35.610	7.031
7610.030	-35.030	6.885
7610.070	-32.180	6.812
7610.100	-30.930	6.372
7610.440	5.210	0.146
7610.460	9.010	-0.439
7610.760	37.310	-6.665
7610.770	38.060	-6.885
7610.800	39.340	-7.324
7610.850	40.350	-7.690
7610.860	40.690	-7.617
7610.880	41.660	-7.617
7610.930	42.810	-8.203
7610.950	43.050	-7.983
7610.980	42.700	-8.057
7611.040	41.020	-8.057
7611.060	40.750	-7.764
7611.070	40.470	-7.983
7611.110	38.470	-7.397
7611.170	34.370	-6.958
7611.190	32.710	-6.812
7611.240	28.800	-5.786
7611.250	28.160	-5.640
7611.260	26.780	-5.859
7611.530	-10.270	1.099
7611.560	-12.340	1.685
7611.570	-13.290	1.831
7611.600	-16.620	2.490
7611.610	-17.780	2.930
7611.620	-18.910	3.003
7611.670	-21.850	4.102
7611.700	-23.610	4.028
7611.870	-31.510	6.006
7611.880	-31.780	6.006
7612.020	-31.890	6.079
7612.120	-28.400	5.933
7612.130	-27.790	5.713
7612.290	-12.100	3.076
7612.310	-8.210	2.417
7612.420	4.420	0.073
7612.430	5.510	-0.220
7612.690	30.610	-5.347
7612.710	32.020	-5.566
7612.740	33.100	-5.713
7612.830	38.050	-7.104
7612.900	40.140	-7.397
7612.940	40.490	-7.690
7612.960	40.550	-7.617
7612.970	40.400	-7.837
7612.990	40.080	-7.690
7613.000	40.120	-7.690
7613.080	37.590	-7.397
7613.150	32.860	-6.738
7613.160	31.960	-6.738
7613.170	31.320	-6.665
7613.210	27.850	-5.640
7613.240	23.760	-5.273
7613.250	22.570	-5.054
7613.440	-6.160	0.073
7613.460	-9.690	0.586
7613.490	-14.570	1.465
7613.890	-45.910	8.643
7613.900	-46.250	8.350
7613.930	-46.650	8.862
7614.000	-45.440	9.009
7614.020	-44.740	8.789
7614.030	-44.540	8.643
7614.040	-44.200	8.789
7614.060	-43.290	8.716
7614.090	-42.340	8.423
7614.110	-40.740	8.496
7614.410	-17.650	3.955
7614.450	-10.090	2.930
7614.590	9.220	-0.879
7614.650	15.840	-2.563
7614.780	25.990	-4.541
7614.810	27.640	-4.907
7614.890	30.130	-5.640
7615.020	32.000	-5.859
7615.220	23.500	-4.980
7615.330	12.950	-3.076
7615.530	-14.720	2.124
7615.540	-15.620	2.124
7615.550	-16.740	2.490
7615.570	-18.740	2.930
7615.580	-19.300	3.149
7615.730	-28.230	5.054
7615.740	-27.660	5.493
7615.750	-27.330	5.566
7615.780	-28.560	5.640
7615.790	-29.070	5.566
7615.860	-31.400	5.713
7615.870	-31.660	6.006
7616.060	-33.200	6.445
7616.130	-32.940	6.226
7616.150	-32.230	6.226
7616.160	-31.460	6.299
7616.170	-30.240	6.299
7616.180	-29.400	6.226
7616.200	-28.050	5.713
7616.210	-27.100	5.859
7616.220	-25.730	5.859
7616.250	-22.020	4.980
7616.830	41.430	-7.690
7616.940	44.700	-8.276
7617.040	44.040	-8.496
7617.060	44.060	-8.569
7617.080	42.620	-8.203
7617.090	42.200	-8.423
7617.110	40.750	-8.057
7617.210	34.840	-6.665
7617.240	31.650	-6.665
7617.380	14.440	-3.662
7617.680	-21.300	3.223
7618.040	-34.550	6.592
7618.050	-34.260	6.592
7618.060	-33.570	6.519
7618.080	-32.880	6.519
7618.090	-32.390	6.738
7618.130	-30.110	6.152
7618.330	-8.300	2.197
7618.410	2.460	0.659
7618.420	4.340	0.293
7618.430	5.500	-0.073
7618.500	14.590	-1.978
7618.700	32.170	-5.493
7618.740	34.580	-6.445
7618.810	38.600	-7.178
7618.840	39.600	-7.104
7618.870	40.210	-7.837
7618.890	40.660	-7.764
7618.900	40.750	-7.617
7618.910	40.590	-7.617
7618.950	39.750	-7.617
7619.010	39.080	-7.544
7619.030	38.610	-7.397
7619.060	36.870	-7.324
7619.110	34.170	-7.031
7619.120	33.560	-7.031
7619.570	-20.570	3.516
7619.580	-22.160	3.589
7619.950	-42.020	7.983
7619.980	-41.820	7.983
7619.990	-41.470	8.203
7620.000	-40.850	8.276
7620.030	-39.790	7.764
7620.040	-39.320	7.764
7620.130	-35.430	7.178
7620.610	13.130	-2.197
7620.650	16.820	-2.563
7620.870	30.890	-5.566
7620.880	31.470	-5.566
7620.950	31.800	-6.152
7621.020	31.390	-6.152
7621.050	31.130	-6.152
7621.090	29.060	-5.859
7621.100	28.300	-5.933
7621.130	26.050	-5.640
7621.420	1.440	-1.025
7621.430	-0.090	-0.879
7621.730	-26.900	4.761
7621.800	-31.220	5.566
7621.810	-31.390	5.786
7621.840	-32.030	5.640
7621.870	-32.550	6.226
7621.910	-32.680	6.079
7621.940	-32.850	6.592
7622.110	-29.530	5.933
7622.130	-28.490	5.713
7622.420	3.320	0.220
7622.440	7.420	-0.220
7622.450	8.780	-0.513
7622.470	11.390	-1.025
7622.480	11.920	-1.465
7622.510	14.940	-2.344
7622.520	16.500	-2.490
7622.530	17.510	-2.637
7622.540	18.330	-2.856
7622.550	19.520	-3.003
7622.610	24.130	-4.175
7622.640	26.540	-4.614
7622.870	39.250	-7.104
7622.920	40.230	-7.617
7622.930	40.370	-7.617
7622.970	40.430	-7.690
7623.020	39.740	-7.983
7623.070	37.680	-7.690
7623.080	37.540	-7.690
7623.120	35.820	-7.031
7623.140	34.890	-7.104
7623.220	27.880	-5.933
7623.260	23.860	-5.054
7623.280	20.730	-4.834
7623.300	18.580	-4.395
7623.460	-3.360	-0.293
7623.530	-15.270	2.271
7623.570	-18.100	2.930
7623.730	-31.100	5.420
7623.750	-31.940	5.859
7623.760	-32.270	5.713
7623.810	-33.600	6.372
7623.880	-35.780	6.738
7623.960	-36.710	6.958
7624.030	-35.060	6.885
7624.110	-32.000	6.299
7624.140	-29.170	6.006
7624.170	-27.160	5.640
7624.270	-15.870	3.589
7624.500	9.420	-0.879
7624.550	13.420	-1.978
7624.610	18.120	-3.076
7624.640	21.030	-3.296
7624.840	33.560	-6.299
7624.860	34.340	-6.592
7624.920	35.890	-6.738
7624.970	35.990	-6.885
7624.980	36.370	-7.031
7625.070	34.190	-6.812
7625.080	33.880	-6.665
7625.440	-2.040	-0.586
7625.630	-23.830	3.882
7625.640	-24.890	4.102
7625.780	-33.780	6.372
7625.820	-34.760	6.299
7625.970	-37.350	7.178
7626.190	-27.430	5.786
7626.230	-23.470	4.980
7626.240	-23.120	4.761
7626.280	-18.720	3.809
7626.290	-17.610	3.809
7626.310	-15.030	3.662
7626.340	-10.920	2.710
7626.370	-8.160	2.490
7626.480	5.620	-0.293
7626.560	12.490	-2.051
7626.620	16.580	-2.710
7626.680	20.960	-3.369
7626.700	22.250	-3.955
7626.800	29.410	-5.127
7627.050	38.380	-7.031
7627.090	36.610	-7.251
7627.110	35.280	-6.958
7627.130	34.230	-7.031
7627.140	33.990	-7.031
7627.170	32.310	-6.226
7627.200	29.610	-6.226
7627.210	28.420	-6.152
7627.340	13.300	-3.369
7627.360	10.050	-2.856
7627.520	-13.140	1.978
7627.550	-16.200	2.490
7627.630	-25.760	4.248
7627.730	-31.720	5.713
7627.760	-32.680	5.933
7627.770	-33.450	5.786
7627.810	-35.520	6.519
7627.870	-37.690	7.251
7627.880	-38.120	7.251
7627.920	-37.930	7.178
7627.980	-37.510	7.251
7628.000	-36.900	7.397
7628.020	-36.360	7.104
7628.040	-35.450	6.812
7628.060	-34.670	7.031
7628.100	-32.620	6.519
7628.110	-31.810	6.519
7628.130	-30.270	6.592
7628.320	-13.440	3.076
7628.340	-10.470	2.783
7628.380	-4.620	1.831
7628.410	-0.730	1.245
7628.420	0.590	1.025
7628.430	2.390	0.732
7628.450	5.070	0.000
7628.670	23.920	-4.028
7628.680	24.390	-4.321
7628.830	33.500	-5.786
7628.880	34.440	-6.665
7628.890	34.600	-6.519
7629.070	34.870	-6.738
7629.120	32.920	-6.445
7629.190	28.630	-5.640
7629.300	17.490	-4.102
7629.370	8.050	-2.271
7629.380	5.930	-2.051
7629.490	-10.790	1.025
7629.630	-26.210	4.541
7629.660	-27.690	5.127
7629.670	-28.350	5.127
7629.710	-30.640	5.566
7629.730	-31.300	5.493
7629.750	-32.390	6.152
7629.760	-32.910	6.006
7629.780	-34.070	6.372
7629.890	-37.990	7.178
7629.910	-38.560	7.324
7629.940	-38.770	7.324
7629.960	-38.450	7.544
7630.010	-36.990	7.251
7630.080	-33.920	6.958
7630.100	-33.220	6.885
7630.360	-7.370	2.344
7630.480	6.890	-0.366
7630.500	9.370	-0.806
7630.530	13.050	-1.611
7630.560	15.250	-2.197
7630.600	20.060	-3.516
7630.610	20.970	-3.589
7630.740	30.100	-5.566
7630.790	32.670	-5.786
7630.810	33.500	-6.006
7630.850	35.560	-6.738
7630.890	36.640	-6.812
7630.940	36.780	-6.885
7630.980	37.070	-7.178
7631.010	36.750	-7.031
7631.050	35.190	-7.178
7631.110	32.660	-6.592
7631.240	23.580	-4.907
7631.280	19.260	-4.468
7631.290	18.770	-4.321
7631.310	16.130	-3.735
7631.410	1.640	-1.538
7631.470	-6.870	0.146
7631.480	-8.250	0.439
7631.590	-20.020	3.516
7631.640	-23.030	4.175
7631.710	-26.810	4.834
7631.730	-28.300	5.127
7631.760	-30.000	5.566
7631.770	-30.880	5.566
7631.820	-32.470	6.079
7631.900	-33.830	6.445
7631.970	-33.980	6.738
7632.080	-30.460	5.933
7632.090	-30.330	5.933
7632.110	-29.400	6.226
7632.130	-27.600	5.713
7632.160	-26.090	5.200
7632.170	-25.510	5.127
7632.220	-20.980	4.541
7632.230	-19.580	4.468
7632.410	2.610	0.366
7632.620	21.900	-3.662
7632.650	24.070	-4.175
7632.730	28.890	-5.273
7632.780	32.840	-5.859
7632.840	35.700	-6.665
7632.860	36.370	-6.519
7632.900	36.570	-7.178
7632.910	36.830	-7.104
7632.940	37.400	-7.031
7633.000	37.270	-6.958
7633.090	33.850	-6.812
7633.160	30.310	-6.372
7633.180	29.360	-6.226
7633.220	25.030	-5.347
7633.310	17.230	-3.955
7633.460	-4.750	0.073
7633.580	-19.330	3.223
7633.590	-20.230	3.516
7633.690	-28.180	5.054
7633.700	-28.630	5.127
7633.720	-29.980	5.493
7633.740	-31.010	5.933
7633.760	-31.280	5.713
7633.770	-31.750	5.933
7633.840	-34.230	6.372
7633.850	-34.450	6.519
7634.060	-37.570	7.104
7634.070	-37.640	6.958
7634.210	-27.630	5.713
7634.250	-24.760	5.347
7634.330	-16.430	3.882
7634.340	-13.230	3.369
7634.350	-11.860	3.003
7634.370	-9.690	2.563
7634.470	6.120	-0.146
7634.480	7.280	-0.366
7634.510	10.410	-1.099
7634.540	13.850	-1.685
7634.560	15.580	-2.124
7634.610	19.540	-3.223
7634.620	20.250	-3.662
7634.640	21.600	-3.882
7634.700	25.320	-4.395
7634.710	25.670	-4.468
7634.720	26.780	-4.614
7634.790	31.450	-5.566
7634.800	32.130	-6.006
7634.810	32.830	-6.079
7634.860	34.280	-6.299
7634.880	35.150	-6.592
7635.000	35.760	-6.885
7635.020	35.070	-6.958
7635.060	33.860	-6.738
7635.110	31.870	-6.152
7635.140	29.470	-6.226
7635.440	4.370	-1.465
7635.450	3.210	-1.172
7635.470	-0.430	-0.806
7635.530	-8.640	0.586
7635.550	-12.630	1.245
7635.560	-14.310	1.611
7635.570	-15.180	1.904
7635.610	-19.040	2.710
7635.740	-28.370	5.127
7635.790	-30.750	5.420
7635.830	-32.330	5.859
7635.890	-34.300	6.592
7635.900	-34.390	6.519
7635.950	-33.860	6.592
7635.960	-33.390	6.665
7635.980	-32.940	6.592
7636.060	-31.450	6.299
7636.100	-30.440	6.006
7636.120	-28.460	5.859
7636.150	-25.390	5.347
7636.190	-22.550	5.054
7636.570	13.070	-2.051
7636.580	14.090	-2.051
7636.640	18.550	-3.223
7636.690	22.700	-4.028
7636.710	24.540	-4.248
7636.720	25.460	-4.248
7636.740	26.200	-4.614
7636.780	28.750	-5.200
7636.800	29.590	-5.273
7636.810	30.130	-5.420
7636.820	30.290	-5.713
7636.910	33.100	-5.933
7637.000	33.010	-6.079
7637.040	31.910	-6.519
7637.050	31.530	-6.519
7637.060	31.090	-6.299
7637.090	30.310	-6.152
7637.150	27.210	-5.273
7637.170	26.010	-5.420
7637.180	25.090	-5.273
7637.210	22.310	-4.907
7637.340	7.280	-2.124
7637.370	4.130	-1.538
7637.380	2.170	-1.392
7637.400	-0.640	-0.879
7637.750	-32.440	5.859
7637.760	-32.840	6.079
7637.770	-33.520	5.933
7637.780	-34.770	6.299
7637.790	-34.910	6.592
7637.820	-35.640	6.738
7637.870	-37.110	7.104
7637.880	-36.860	7.104
7637.890	-37.090	7.104
7638.000	-36.450	7.031
7638.010	-36.210	7.178
7638.030	-35.490	6.885
7638.150	-30.640	6.372
7638.170	-30.300	6.079
7638.200	-27.620	5.493
7638.290	-17.500	4.248
7638.420	1.490	0.439
7638.430	2.940	0.439
7638.470	7.100	-0.439
7638.560	16.300	-2.417
7638.570	17.870	-2.637
7638.580	18.620	-2.637
7638.770	32.000	-5.713
7638.820	34.370	-6.299
7638.840	35.410	-6.592
7638.920	36.750	-7.178
7638.980	37.600	-7.397
7639.100	33.560	-6.812
7639.150	30.740	-6.006
7639.500	-8.710	0.513
7639.520	-12.330	1.025
7639.530	-13.580	1.465
7639.660	-23.970	4.248
7639.730	-27.620	4.907
7639.760	-29.420	5.200
7639.770	-29.880	5.273
7639.810	-31.310	5.566
7639.820	-31.710	5.859
7639.930	-33.900	6.519
7639.970	-33.950	6.592
7640.010	-32.790	6.592
7640.080	-30.030	6.152
7640.100	-28.460	5.786
7640.140	-25.120	5.273
7640.350	-4.120	1.538
7640.610	19.400	-3.223
7640.640	22.180	-3.589
7640.700	26.430	-4.614
