% Time (s)	Gyro Output (V)	Input Rate (rad/s)	%1/26/201811:18 AM
0.000	0.000	0.000
7390.080	-9.550	1.831
7390.110	-9.800	1.831
7390.200	-10.190	1.978
7390.290	-9.640	1.978
7390.310	-9.480	1.978
7390.340	-9.170	1.978
7390.430	-8.500	1.538
7390.460	-8.130	1.758
7390.510	-7.710	1.758
7390.540	-7.520	1.465
7390.590	-7.670	1.538
7390.630	-7.660	1.538
7390.690	-7.290	1.172
7390.710	-7.190	1.099
7390.930	-4.180	0.879
7390.980	-3.010	0.879
7390.990	-2.930	0.806
7391.070	-1.070	0.513
7391.090	-0.590	0.366
7391.100	-0.400	0.293
7391.110	-0.080	0.146
7391.130	0.270	0.146
7391.190	1.350	-0.146
7391.210	1.750	-0.220
7391.280	2.610	-0.513
7391.320	2.890	-0.659
7391.330	2.840	-0.586
7391.370	3.100	-0.659
7391.380	3.030	-0.586
7391.430	2.860	-0.586
7391.440	2.830	-0.586
7391.460	2.650	-0.513
7391.640	0.400	-0.146
7391.650	0.230	-0.073
7391.760	-6.970	0.366
7391.830	-19.230	2.563
7391.850	-21.350	3.076
7392.210	-109.150	19.482
7392.240	-111.770	20.728
7392.280	-115.310	21.680
7392.310	-116.360	21.826
7392.340	-118.240	22.192
7392.460	-119.510	23.291
7392.640	-138.260	26.953
7392.650	-137.480	27.173
7392.680	-136.660	26.587
7392.770	-136.340	26.074
7393.170	-126.300	25.488
7393.180	-126.140	24.756
7393.200	-125.630	24.536
7393.530	78.630	-11.499
7393.710	134.890	-24.609
7393.720	134.860	-24.976
7393.910	138.130	-26.367
7393.940	142.420	-27.173
7393.970	143.270	-26.880
7394.000	140.520	-27.319
7394.010	139.910	-27.466
7394.020	139.090	-27.246
7394.070	134.570	-26.733
7394.100	135.290	-26.367
7394.110	135.350	-26.147
7394.120	134.620	-26.221
7394.130	134.310	-26.001
7394.160	133.540	-25.854
7394.170	133.750	-26.001
7394.220	130.560	-25.562
7394.260	132.210	-25.781
7394.270	132.970	-25.342
7394.350	137.790	-26.147
7394.360	139.880	-26.001
7394.390	143.620	-26.660
7394.420	144.200	-27.539
7394.450	141.670	-27.539
7394.730	103.050	-20.068
7394.790	103.950	-19.775
7394.830	108.190	-20.215
7394.860	106.820	-20.581
7394.870	105.890	-20.508
7394.880	105.320	-20.581
7395.080	45.140	-12.378
7395.230	-15.750	0.513
7395.330	-44.270	6.519
7395.340	-47.550	7.031
7395.740	-134.930	24.976
7395.750	-135.530	24.976
7395.870	-137.770	26.733
7395.880	-137.760	26.440
7395.890	-137.540	26.367
7395.940	-132.630	26.514
7395.960	-130.830	25.928
7395.970	-130.710	25.781
7396.630	-151.760	30.249
7396.650	-148.420	29.810
7396.820	-120.270	24.976
7397.510	119.590	-21.460
7397.580	120.840	-23.291
7397.600	121.160	-23.291
7397.610	122.000	-23.437
7397.780	121.740	-23.511
7397.810	121.400	-23.364
7397.850	117.900	-23.218
7397.860	117.410	-23.145
7397.900	117.510	-22.778
7398.000	122.170	-22.998
7398.040	123.020	-23.437
7398.060	125.750	-23.730
7398.080	130.010	-24.097
7398.230	133.470	-25.635
7398.460	110.860	-22.192
7398.470	109.660	-21.753
7398.500	106.700	-21.240
7398.520	106.710	-21.094
7398.550	107.410	-20.581
7398.810	86.480	-17.139
7399.040	-7.110	-1.758
7399.080	-26.240	1.685
7399.240	-73.870	13.257
7399.250	-75.100	13.110
7399.280	-78.750	14.355
7399.460	-101.760	18.823
7399.490	-102.650	19.629
7399.510	-102.130	19.409
7399.580	-99.690	19.409
7399.590	-99.430	19.409
7399.600	-98.970	19.409
7399.780	-98.220	18.896
7399.810	-101.590	19.116
7399.970	-117.830	22.632
7399.980	-118.360	22.925
7399.990	-118.800	22.925
7400.000	-119.610	22.852
7400.040	-119.480	22.998
7400.100	-123.640	23.218
7400.170	-122.570	23.657
7400.190	-122.790	23.730
7400.200	-122.700	23.804
7400.210	-122.120	23.584
7400.220	-121.830	23.657
7400.280	-123.780	23.730
7400.290	-124.190	23.584
7400.330	-124.400	23.804
7400.360	-128.300	24.097
7400.400	-130.280	24.609
7400.490	-127.810	25.049
7400.500	-126.530	24.829
7400.720	-103.210	20.142
7400.750	-102.860	20.142
7400.830	-92.680	18.750
7401.480	124.810	-23.364
7401.510	129.160	-24.170
7401.530	130.360	-24.536
7401.540	131.110	-24.463
7401.650	125.540	-24.023
7401.680	127.130	-24.023
7401.720	126.440	-24.463
7401.810	126.130	-24.097
7401.850	125.160	-24.023
7401.870	124.210	-24.097
7401.910	119.770	-23.730
7402.240	132.130	-23.657
7402.310	145.710	-27.100
7402.320	145.640	-27.393
7402.350	144.160	-27.905
7402.360	143.620	-27.832
7402.370	142.290	-27.832
7402.400	137.870	-27.539
7402.410	135.870	-27.026
7402.450	125.800	-25.928
7402.460	124.670	-25.269
7402.470	122.630	-24.976
7402.480	121.470	-24.390
7402.490	120.310	-24.316
7402.600	113.060	-22.412
7402.620	114.690	-22.339
7402.640	114.550	-22.046
7402.710	103.960	-20.508
7402.730	101.050	-20.142
7402.740	99.780	-20.068
7402.780	94.840	-18.823
7403.120	-91.130	13.257
7403.170	-111.390	18.604
7403.360	-146.550	28.198
7403.370	-146.290	28.198
7403.380	-145.720	28.052
7403.400	-142.640	27.759
7403.480	-127.260	25.708
7403.560	-127.880	24.316
7403.600	-125.560	24.243
7403.650	-117.830	23.730
7403.910	-118.380	23.145
7404.040	-120.710	23.437
7404.210	-115.810	22.266
7404.250	-117.540	22.485
7404.300	-113.050	22.119
7404.330	-111.650	21.826
7404.410	-102.720	20.435
7404.560	-92.270	18.457
7405.060	108.630	-17.944
7405.130	128.680	-22.559
7405.240	140.050	-26.147
7405.440	168.800	-31.860
7405.760	182.700	-35.010
7407.240	-159.820	30.396
7407.270	-162.120	30.835
7407.310	-164.790	31.274
7407.510	-125.440	24.390
7407.520	-125.900	24.683
7407.760	-129.090	23.950
7407.890	-151.610	27.905
7407.910	-155.790	28.418
7408.130	-117.030	23.218
7408.280	-132.570	25.342
7408.510	-95.090	19.336
7408.890	87.090	-15.601
7409.000	111.270	-19.995
7409.010	113.930	-20.654
7409.030	116.400	-21.240
7409.040	121.050	-21.753
7409.220	150.270	-28.784
7409.270	151.360	-29.150
7409.280	151.330	-29.150
7409.290	150.350	-28.857
7409.300	148.500	-28.857
7409.400	136.560	-27.100
7409.640	147.880	-29.004
7409.720	138.480	-27.319
7409.800	141.010	-27.246
7410.030	97.490	-19.409
7410.100	89.700	-17.944
7410.280	69.680	-14.941
7410.310	61.210	-13.696
7410.800	-120.800	23.291
7410.820	-118.040	23.291
7410.850	-115.040	23.071
7410.920	-94.800	20.215
7410.980	-99.760	18.750
7411.050	-99.590	19.263
7411.060	-97.900	19.263
7411.070	-95.780	19.189
7411.080	-94.760	19.336
7411.110	-91.780	18.604
7411.230	-82.340	16.699
7411.700	-158.370	30.322
7411.790	-143.310	28.638
7412.120	-86.330	18.018
7412.130	-81.560	17.358
7412.140	-77.420	16.333
7412.240	-46.580	10.400
7412.260	-45.760	9.741
7412.310	-40.330	8.276
7412.320	-39.520	8.057
7412.360	-36.670	7.324
7413.010	168.040	-31.860
7413.030	169.730	-32.080
7413.270	135.890	-26.367
7413.440	123.660	-24.829
7413.560	124.010	-23.218
7413.570	124.640	-23.437
7413.620	125.220	-24.170
7413.690	122.960	-23.730
7413.720	124.270	-23.730
7413.730	123.860	-23.657
7413.750	120.660	-23.657
7413.900	102.580	-20.288
7413.940	99.810	-19.629
7413.950	96.010	-19.409
7413.960	92.720	-19.043
7414.510	-84.690	15.381
7414.520	-88.000	15.747
7414.750	-126.770	23.804
7414.840	-126.400	24.390
7414.920	-125.120	24.316
7414.950	-125.460	24.390
7414.990	-126.390	24.609
7415.010	-126.500	24.463
7415.030	-127.870	24.463
7415.050	-129.910	24.536
7415.070	-131.090	24.683
7415.080	-130.480	24.976
7415.120	-129.230	25.049
7415.160	-131.880	25.269
7415.190	-132.190	25.562
7415.210	-130.890	25.415
7415.220	-130.260	25.122
7415.380	-116.070	23.730
7415.470	-96.020	19.409
7415.480	-94.380	19.116
7415.510	-91.400	18.237
7415.530	-92.270	18.091
7415.640	-96.190	18.677
7415.790	-82.790	16.699
7415.830	-78.140	15.894
7415.870	-79.930	14.941
7416.530	212.000	-37.939
7416.570	216.190	-40.503
7416.690	226.900	-43.506
7416.710	227.320	-43.652
7416.720	228.170	-43.652
7416.890	209.070	-41.016
7417.000	167.300	-35.010
7417.100	125.510	-26.294
7417.200	93.710	-20.288
7417.220	83.940	-18.091
7417.680	-15.120	0.659
7417.690	-16.370	1.172
7417.760	-18.460	3.149
7417.890	-17.760	3.149
7417.990	-16.250	3.589
7418.000	-16.340	3.589
7418.010	-16.130	3.369
7418.060	-14.270	3.003
7418.410	-7.770	1.611
7418.420	-7.660	1.685
7418.560	-6.350	1.099
7418.590	-5.750	1.172
7418.620	-5.260	1.318
7418.640	-5.140	1.318
7418.650	-5.130	1.392
7418.710	-3.830	0.952
7418.760	-2.810	0.586
7418.790	-2.060	0.513
7418.850	-0.990	0.293
7419.080	2.770	-0.439
7419.090	2.800	-0.439
7419.120	2.860	-0.513
7419.170	2.920	-0.586
7419.180	2.940	-0.513
7419.210	2.810	-0.586
7419.220	2.920	-0.586
7419.240	2.580	-0.659
7419.280	2.140	-0.659
7419.290	2.100	-0.659
7419.400	0.650	-0.220
7419.460	-0.260	-0.073
7419.490	-0.630	0.000
7419.800	-0.690	0.293
7419.880	-0.060	0.073
7419.890	0.150	0.000
7419.900	0.180	0.000
7420.060	1.100	-0.220
7420.080	1.260	-0.220
7420.110	1.060	-0.220
7420.180	0.970	-0.293
7420.190	0.910	-0.220
7420.240	0.600	-0.146
7420.260	0.360	-0.146
7420.310	0.090	-0.073
7420.420	-0.550	0.073
7420.470	-0.670	0.146
7420.490	-0.720	0.220
7420.540	-0.590	0.220
7420.560	-0.550	0.220
7420.620	-0.340	0.146
7420.690	-0.010	0.073
7420.720	0.030	0.000
7420.950	0.570	-0.073
7420.960	0.540	-0.146
